OOIBase32 Version 1.0.0.8 Data File
++++++++++++++++++++++++++++++++++++
Date: Friday, January 04, 1980, 00:19:37
User: Valued Ocean Optics Customer
Spectrometer Serial Number: Unknown
Spectrometer Channel: Master
Integration Time (msec): 100
Spectra Averaged: 5
Boxcar Smoothing: 3
Correct for Electrical Dark: Disabled
Time Normalized: Disabled
Dual-beam Reference: Disabled
Reference Channel: Master
>>>>>Begin Spectral Data<<<<<
179.00	0.0000
179.38	0.0000
179.75	-0.0000
180.13	0.0000
180.51	0.0000
180.88	0.0000
181.26	0.0000
181.64	0.0000
182.02	0.0000
182.39	0.0000
182.77	0.0000
183.15	0.0000
183.52	0.0000
183.90	0.0000
184.28	0.0000
184.65	0.0000
185.03	0.0000
185.41	0.0000
185.78	0.0000
186.16	0.0000
186.53	0.0000
186.91	0.0000
187.29	0.0000
187.66	0.0000
188.04	0.0000
188.42	0.0000
188.79	0.0000
189.17	0.0000
189.55	0.0000
189.92	0.0000
190.30	-0.0000
190.67	0.0000
191.05	0.0000
191.43	0.0000
191.80	0.0000
192.18	0.0000
192.56	0.0000
192.93	0.0000
193.31	0.0000
193.68	0.0000
194.06	0.0000
194.44	0.0000
194.81	0.0000
195.19	0.0000
195.56	0.0000
195.94	0.0000
196.32	0.0000
196.69	0.0000
197.07	0.0000
197.44	0.0000
197.82	-0.0000
198.19	-0.0000
198.57	-0.0000
198.95	-0.0000
199.32	-0.0000
199.70	0.0000
200.07	0.0000
200.45	0.0000
200.82	0.0000
201.20	-0.0000
201.57	0.0000
201.95	0.0000
202.33	0.0000
202.70	0.0000
203.08	0.0000
203.45	0.0000
203.83	0.0000
204.20	0.0000
204.58	0.0000
204.95	-0.0000
205.33	-0.0000
205.70	0.0000
206.08	0.0000
206.45	0.0000
206.83	0.0000
207.20	-0.0000
207.58	0.0000
207.95	0.0000
208.33	0.0000
208.70	0.0000
209.08	0.0000
209.45	0.0000
209.83	0.0000
210.20	0.0000
210.58	0.0000
210.95	0.0000
211.33	0.0000
211.70	-0.0000
212.08	0.0000
212.45	0.0000
212.83	0.0000
213.20	0.0000
213.58	0.0000
213.95	0.0000
214.33	0.0000
214.70	-0.0000
215.07	-0.0000
215.45	0.0000
215.82	0.0000
216.20	0.0000
216.57	-0.0000
216.95	0.0000
217.32	0.0000
217.70	-0.0000
218.07	0.0000
218.44	0.0000
218.82	0.0000
219.19	0.0000
219.57	0.0000
219.94	0.0000
220.32	-0.0000
220.69	0.0000
221.06	0.0000
221.44	0.0000
221.81	-0.0000
222.19	0.0000
222.56	0.0000
222.93	0.0000
223.31	-0.0000
223.68	0.0000
224.06	0.0000
224.43	0.0000
224.80	-0.0000
225.18	0.0000
225.55	0.0000
225.92	0.0000
226.30	0.0000
226.67	0.0000
227.05	0.0000
227.42	0.0000
227.79	0.0000
228.17	-0.0000
228.54	-0.0000
228.91	0.0000
229.29	0.0000
229.66	-0.0000
230.03	0.0000
230.41	-0.0000
230.78	0.0000
231.15	0.0000
231.53	-0.0001
231.90	0.0000
232.27	0.0000
232.65	0.0000
233.02	0.0000
233.39	0.0000
233.77	0.0000
234.14	-0.0000
234.51	-0.0000
234.89	0.0001
235.26	0.0000
235.63	-0.0000
236.01	-0.0000
236.38	0.0000
236.75	0.0000
237.12	-0.0000
237.50	-0.0000
237.87	-0.0000
238.24	0.0000
238.62	0.0000
238.99	0.0000
239.36	0.0000
239.73	0.0000
240.11	0.0000
240.48	0.0000
240.85	0.0000
241.23	0.0000
241.60	0.0000
241.97	0.0000
242.34	0.0000
242.72	0.0000
243.09	0.0000
243.46	0.0002
243.83	0.0000
244.21	0.0000
244.58	0.0000
244.95	0.0000
245.32	0.0000
245.70	0.0000
246.07	0.0000
246.44	0.0000
246.81	0.0000
247.18	0.0000
247.56	0.0000
247.93	0.0000
248.30	0.0000
248.67	0.0000
249.04	0.0000
249.42	0.0000
249.79	0.0000
250.16	0.0000
250.53	0.0000
250.90	0.0000
251.28	0.0000
251.65	0.0000
252.02	0.0000
252.39	0.0001
252.76	0.0002
253.14	-0.0001
253.51	-0.0001
253.88	0.0000
254.25	0.0000
254.62	0.0000
254.99	0.0000
255.37	0.0000
255.74	-0.0000
256.11	-0.0000
256.48	-0.0000
256.85	0.0000
257.22	0.0000
257.59	0.0000
257.97	0.0000
258.34	0.0000
258.71	0.0000
259.08	-0.0000
259.45	-0.0000
259.82	-0.0007
260.19	-0.0001
260.56	-0.0000
260.94	-0.0000
261.31	0.0000
261.68	0.0001
262.05	0.0000
262.42	0.0001
262.79	0.0001
263.16	0.0002
263.53	-0.0001
263.90	-0.0000
264.28	-0.0001
264.65	-0.0003
265.02	0.0000
265.39	-0.0001
265.76	0.0000
266.13	0.0000
266.50	0.0000
266.87	0.0000
267.24	0.0000
267.61	0.0000
267.98	0.0000
268.35	0.0000
268.72	0.0000
269.09	-0.0000
269.46	0.0002
269.84	0.0002
270.21	0.0001
270.58	0.0000
270.95	0.0001
271.32	0.0000
271.69	0.0000
272.06	0.0002
272.43	0.0005
272.80	0.0003
273.17	0.0001
273.54	0.0001
273.91	0.0001
274.28	0.0001
274.65	0.0001
275.02	0.0001
275.39	0.0001
275.76	0.0001
276.13	0.0001
276.50	0.0002
276.87	0.0005
277.24	0.0006
277.61	0.0004
277.98	0.0002
278.35	0.0002
278.72	0.0001
279.09	0.0001
279.46	0.0001
279.83	0.0001
280.20	0.0001
280.57	0.0001
280.94	0.0001
281.31	0.0000
281.67	-0.0001
282.04	-0.0001
282.41	0.0018
282.78	0.0011
283.15	0.0003
283.52	0.0002
283.89	0.0002
284.26	0.0003
284.63	0.0001
285.00	0.0001
285.37	0.0001
285.74	0.0002
286.11	0.0001
286.48	-0.0000
286.85	0.0001
287.21	0.0003
287.58	0.0000
287.95	0.0000
288.32	-0.0010
288.69	0.0001
289.06	0.0001
289.43	0.0001
289.80	0.0001
290.17	0.0003
290.54	0.0003
290.90	0.0003
291.27	0.0002
291.64	0.0003
292.01	0.0002
292.38	0.0002
292.75	0.0002
293.12	0.0002
293.48	0.0002
293.85	0.0002
294.22	0.0003
294.59	0.0004
294.96	0.0017
295.33	0.0000
295.70	0.0013
296.06	-0.0060
296.43	0.0000
296.80	0.0008
297.17	0.0005
297.54	0.0003
297.91	0.0005
298.27	0.0004
298.64	0.0002
299.01	0.0003
299.38	0.0004
299.75	0.0004
300.11	0.0004
300.48	0.0001
300.85	0.0001
301.22	0.0001
301.59	-0.0008
301.95	0.0084
302.32	-0.0038
302.69	-0.0018
303.06	-0.0002
303.43	0.0002
303.79	0.0005
304.16	0.0013
304.53	-0.0023
304.90	-0.0001
305.26	0.0003
305.63	0.0006
306.00	0.0012
306.37	-0.0005
306.73	-0.0003
307.10	0.0001
307.47	0.0004
307.84	0.0006
308.20	0.0008
308.57	0.0008
308.94	0.0014
309.31	0.0017
309.67	0.0018
310.04	0.0013
310.41	0.0012
310.77	0.0014
311.14	0.0041
311.51	0.0011
311.88	0.0009
312.24	0.0007
312.61	0.0006
312.98	0.0001
313.34	-0.0007
313.71	0.0005
314.08	0.0003
314.44	0.0007
314.81	0.0001
315.18	-0.0007
315.55	0.0025
315.91	0.0003
316.28	0.0004
316.65	0.0003
317.01	0.0002
317.38	0.0003
317.75	0.0003
318.11	0.0003
318.48	0.0001
318.84	0.0001
319.21	0.0000
319.58	-0.0009
319.94	0.0000
320.31	0.0007
320.68	0.0000
321.04	-0.0004
321.41	0.0024
321.78	0.0000
322.14	0.0001
322.51	0.0001
322.87	0.0003
323.24	0.0002
323.61	0.0004
323.97	0.0004
324.34	0.0005
324.70	0.0005
325.07	0.0006
325.44	0.0003
325.80	0.0003
326.17	-0.0077
326.53	0.0002
326.90	-0.0005
327.27	-0.0024
327.63	-0.0025
328.00	0.0016
328.36	-0.0038
328.73	0.0035
329.09	-0.0072
329.46	-0.0021
329.83	0.0045
330.19	0.0021
330.56	0.0013
330.92	0.0012
331.29	0.0011
331.65	0.0007
332.02	0.0012
332.38	0.0016
332.75	0.0018
333.11	0.0016
333.48	0.0013
333.84	0.0009
334.21	0.0009
334.58	0.0000
334.94	0.0003
335.31	-0.0003
335.67	-0.0002
336.04	0.0007
336.40	0.0014
336.77	0.0014
337.13	0.0014
337.50	0.0040
337.86	0.0031
338.22	0.0005
338.59	-0.0014
338.95	0.0014
339.32	-0.0080
339.68	0.0043
340.05	0.0026
340.41	0.0025
340.78	0.0027
341.14	0.0026
341.51	0.0018
341.87	0.0015
342.24	0.0014
342.60	0.0017
342.96	0.0008
343.33	0.0008
343.69	0.0026
344.06	0.0033
344.42	0.0043
344.79	0.0040
345.15	0.0034
345.51	0.0045
345.88	0.0066
346.24	0.0188
346.61	-0.0095
346.97	0.0033
347.34	0.0039
347.70	0.0030
348.06	0.0038
348.43	0.0039
348.79	0.0053
349.16	0.0041
349.52	0.0000
349.88	0.0029
350.25	0.0031
350.61	0.0001
350.97	-0.0030
351.34	-0.0004
351.70	0.0015
352.07	0.0016
352.43	0.0020
352.79	0.0025
353.16	0.0028
353.52	0.0037
353.88	0.0035
354.25	0.0029
354.61	0.0028
354.97	0.0022
355.34	0.0020
355.70	0.0022
356.06	0.0020
356.43	0.0014
356.79	0.0012
357.15	0.0024
357.52	0.0019
357.88	0.0005
358.24	0.0004
358.60	0.0023
358.97	0.0052
359.33	0.0060
359.69	0.0058
360.06	0.0069
360.42	0.0061
360.78	0.0057
361.14	0.0060
361.51	0.0031
361.87	0.0044
362.23	0.0050
362.60	0.0066
362.96	0.0110
363.32	0.0073
363.68	0.0071
364.05	0.0058
364.41	0.0044
364.77	0.0035
365.13	0.0025
365.50	0.0028
365.86	0.0025
366.22	0.0048
366.58	0.0064
366.95	0.0060
367.31	0.0078
367.67	0.0119
368.03	0.0088
368.39	0.0061
368.76	0.0049
369.12	0.0048
369.48	0.0055
369.84	0.0058
370.20	0.0043
370.57	0.0052
370.93	0.0062
371.29	0.0050
371.65	0.0052
372.01	0.0057
372.38	0.0049
372.74	0.0045
373.10	0.0028
373.46	0.0013
373.82	0.0070
374.18	0.0092
374.55	0.0077
374.91	0.0075
375.27	0.0072
375.63	0.0082
375.99	0.0072
376.35	0.0066
376.71	0.0057
377.08	0.0028
377.44	-0.0019
377.80	-0.0000
378.16	0.0024
378.52	0.0061
378.88	0.0045
379.24	0.0059
379.60	0.0085
379.97	0.0106
380.33	0.0056
380.69	0.0062
381.05	0.0061
381.41	0.0070
381.77	0.0019
382.13	0.0016
382.49	0.0017
382.85	0.0066
383.21	0.0158
383.57	0.0173
383.94	0.0206
384.30	0.0277
384.66	0.0226
385.02	0.0273
385.38	0.0191
385.74	0.0167
386.10	0.0113
386.46	0.0090
386.82	0.0084
387.18	0.0090
387.54	0.0068
387.90	0.0070
388.26	0.0074
388.62	0.0102
388.98	0.0093
389.34	0.0092
389.70	0.0118
390.06	0.0121
390.42	0.0130
390.78	0.0118
391.14	0.0113
391.50	0.0150
391.86	0.0142
392.22	0.0113
392.58	0.0114
392.94	0.0109
393.30	0.0108
393.66	0.0113
394.02	0.0108
394.38	0.0153
394.74	0.0168
395.10	0.0200
395.46	0.0233
395.82	0.0207
396.18	0.0211
396.54	0.0182
396.90	0.0163
397.26	0.0155
397.62	0.0142
397.98	0.0144
398.34	0.0144
398.70	0.0145
399.05	0.0164
399.41	0.0145
399.77	0.0137
400.13	0.0154
400.49	0.0159
400.85	0.0218
401.21	0.0201
401.57	0.0185
401.93	0.0175
402.29	0.0192
402.65	0.0172
403.00	0.0163
403.36	0.0134
403.72	0.0130
404.08	0.0121
404.44	0.0123
404.80	0.0093
405.16	0.0138
405.52	0.0161
405.87	0.0163
406.23	0.0155
406.59	0.0144
406.95	0.0164
407.31	0.0152
407.67	0.0158
408.03	0.0155
408.38	0.0139
408.74	0.0151
409.10	0.0163
409.46	0.0153
409.82	0.0166
410.17	0.0159
410.53	0.0181
410.89	0.0214
411.25	0.0204
411.61	0.0219
411.97	0.0227
412.32	0.0238
412.68	0.0274
413.04	0.0230
413.40	0.0228
413.75	0.0243
414.11	0.0242
414.47	0.0265
414.83	0.0277
415.19	0.0264
415.54	0.0296
415.90	0.0287
416.26	0.0248
416.62	0.0271
416.97	0.0232
417.33	0.0202
417.69	0.0202
418.05	0.0196
418.40	0.0193
418.76	0.0211
419.12	0.0189
419.48	0.0204
419.83	0.0218
420.19	0.0219
420.55	0.0220
420.90	0.0210
421.26	0.0209
421.62	0.0221
421.98	0.0232
422.33	0.0239
422.69	0.0232
423.05	0.0229
423.40	0.0249
423.76	0.0252
424.12	0.0256
424.47	0.0249
424.83	0.0243
425.19	0.0257
425.54	0.0265
425.90	0.0253
426.26	0.0263
426.61	0.0263
426.97	0.0265
427.33	0.0233
427.68	0.0230
428.04	0.0232
428.40	0.0236
428.75	0.0238
429.11	0.0234
429.47	0.0232
429.82	0.0270
430.18	0.0270
430.53	0.0259
430.89	0.0269
431.25	0.0259
431.60	0.0285
431.96	0.0293
432.31	0.0291
432.67	0.0309
433.03	0.0313
433.38	0.0303
433.74	0.0304
434.09	0.0286
434.45	0.0268
434.81	0.0272
435.16	0.0277
435.52	0.0274
435.87	0.0282
436.23	0.0311
436.58	0.0313
436.94	0.0336
437.30	0.0324
437.65	0.0313
438.01	0.0345
438.36	0.0369
438.72	0.0373
439.07	0.0397
439.43	0.0392
439.78	0.0424
440.14	0.0431
440.49	0.0393
440.85	0.0373
441.20	0.0350
441.56	0.0337
441.91	0.0349
442.27	0.0345
442.62	0.0344
442.98	0.0356
443.33	0.0361
443.69	0.0360
444.04	0.0363
444.40	0.0368
444.75	0.0381
445.11	0.0378
445.46	0.0394
445.82	0.0402
446.17	0.0403
446.53	0.0404
446.88	0.0379
447.23	0.0366
447.59	0.0369
447.94	0.0345
448.30	0.0371
448.65	0.0401
449.01	0.0404
449.36	0.0407
449.72	0.0426
450.07	0.0447
450.42	0.0472
450.78	0.0439
451.13	0.0423
451.49	0.0438
451.84	0.0451
452.19	0.0443
452.55	0.0422
452.90	0.0429
453.26	0.0432
453.61	0.0425
453.96	0.0413
454.32	0.0421
454.67	0.0418
455.02	0.0455
455.38	0.0447
455.73	0.0453
456.09	0.0454
456.44	0.0462
456.79	0.0464
457.15	0.0455
457.50	0.0443
457.85	0.0436
458.21	0.0432
458.56	0.0430
458.91	0.0437
459.27	0.0444
459.62	0.0467
459.97	0.0482
460.32	0.0511
460.68	0.0514
461.03	0.0532
461.38	0.0526
461.74	0.0535
462.09	0.0564
462.44	0.0566
462.80	0.0581
463.15	0.0596
463.50	0.0593
463.85	0.0607
464.21	0.0627
464.56	0.0590
464.91	0.0587
465.26	0.0612
465.62	0.0615
465.97	0.0619
466.32	0.0609
466.67	0.0580
467.03	0.0573
467.38	0.0552
467.73	0.0511
468.08	0.0509
468.44	0.0529
468.79	0.0550
469.14	0.0566
469.49	0.0598
469.85	0.0634
470.20	0.0645
470.55	0.0645
470.90	0.0640
471.25	0.0647
471.61	0.0624
471.96	0.0607
472.31	0.0591
472.66	0.0609
473.01	0.0625
473.36	0.0615
473.72	0.0605
474.07	0.0626
474.42	0.0647
474.77	0.0671
475.12	0.0691
475.47	0.0666
475.83	0.0652
476.18	0.0642
476.53	0.0629
476.88	0.0622
477.23	0.0592
477.58	0.0585
477.93	0.0607
478.28	0.0637
478.64	0.0659
478.99	0.0653
479.34	0.0662
479.69	0.0694
480.04	0.0714
480.39	0.0737
480.74	0.0733
481.09	0.0724
481.44	0.0736
481.79	0.0736
482.15	0.0729
482.50	0.0723
482.85	0.0715
483.20	0.0708
483.55	0.0710
483.90	0.0732
484.25	0.0754
484.60	0.0768
484.95	0.0760
485.30	0.0747
485.65	0.0767
486.00	0.0781
486.35	0.0783
486.70	0.0765
487.05	0.0756
487.40	0.0753
487.75	0.0772
488.10	0.0765
488.45	0.0780
488.80	0.0783
489.15	0.0782
489.50	0.0787
489.85	0.0805
490.20	0.0800
490.55	0.0816
490.90	0.0801
491.25	0.0812
491.60	0.0835
491.95	0.0827
492.30	0.0836
492.65	0.0847
493.00	0.0837
493.35	0.0837
493.70	0.0839
494.05	0.0829
494.40	0.0852
494.75	0.0847
495.10	0.0844
495.45	0.0866
495.80	0.0875
496.15	0.0861
496.50	0.0876
496.84	0.0881
497.19	0.0889
497.54	0.0903
497.89	0.0894
498.24	0.0910
498.59	0.0938
498.94	0.0938
499.29	0.0943
499.64	0.0963
499.99	0.0963
500.33	0.0974
500.68	0.0976
501.03	0.0967
501.38	0.0991
501.73	0.1002
502.08	0.0992
502.43	0.0985
502.77	0.0986
503.12	0.0983
503.47	0.0985
503.82	0.0969
504.17	0.0971
504.52	0.0979
504.86	0.0990
505.21	0.0983
505.56	0.0974
505.91	0.0980
506.26	0.0985
506.61	0.0986
506.95	0.0988
507.30	0.0998
507.65	0.1008
508.00	0.1025
508.35	0.1031
508.69	0.1044
509.04	0.1045
509.39	0.1041
509.74	0.1052
510.08	0.1065
510.43	0.1089
510.78	0.1091
511.13	0.1091
511.47	0.1105
511.82	0.1119
512.17	0.1136
512.52	0.1131
512.86	0.1121
513.21	0.1134
513.56	0.1138
513.91	0.1135
514.25	0.1126
514.60	0.1118
514.95	0.1126
515.30	0.1127
515.64	0.1115
515.99	0.1110
516.34	0.1128
516.68	0.1133
517.03	0.1126
517.38	0.1147
517.72	0.1141
518.07	0.1157
518.42	0.1160
518.76	0.1150
519.11	0.1162
519.46	0.1160
519.80	0.1155
520.15	0.1168
520.50	0.1164
520.84	0.1181
521.19	0.1207
521.54	0.1216
521.88	0.1243
522.23	0.1241
522.58	0.1238
522.92	0.1232
523.27	0.1232
523.61	0.1228
523.96	0.1223
524.31	0.1223
524.65	0.1249
525.00	0.1269
525.34	0.1299
525.69	0.1303
526.04	0.1302
526.38	0.1314
526.73	0.1303
527.07	0.1282
527.42	0.1284
527.76	0.1272
528.11	0.1283
528.46	0.1282
528.80	0.1295
529.15	0.1312
529.49	0.1334
529.84	0.1318
530.18	0.1330
530.53	0.1347
530.87	0.1358
531.22	0.1375
531.56	0.1389
531.91	0.1381
532.25	0.1385
532.60	0.1389
532.94	0.1378
533.29	0.1378
533.63	0.1351
533.98	0.1334
534.32	0.1355
534.67	0.1382
535.01	0.1411
535.36	0.1444
535.70	0.1443
536.05	0.1444
536.39	0.1453
536.74	0.1437
537.08	0.1437
537.43	0.1436
537.77	0.1432
538.12	0.1435
538.46	0.1459
538.80	0.1485
539.15	0.1497
539.49	0.1504
539.84	0.1502
540.18	0.1521
540.53	0.1545
540.87	0.1546
541.21	0.1535
541.56	0.1539
541.90	0.1552
542.25	0.1564
542.59	0.1542
542.93	0.1548
543.28	0.1546
543.62	0.1578
543.97	0.1599
544.31	0.1596
544.65	0.1579
545.00	0.1587
545.34	0.1591
545.68	0.1598
546.03	0.1589
546.37	0.1570
546.71	0.1597
547.06	0.1625
547.40	0.1637
547.74	0.1636
548.09	0.1666
548.43	0.1667
548.77	0.1675
549.12	0.1667
549.46	0.1672
549.80	0.1670
550.15	0.1676
550.49	0.1685
550.83	0.1708
551.17	0.1728
551.52	0.1737
551.86	0.1758
552.20	0.1779
552.55	0.1776
552.89	0.1765
553.23	0.1752
553.57	0.1756
553.92	0.1750
554.26	0.1733
554.60	0.1733
554.94	0.1762
555.29	0.1767
555.63	0.1785
555.97	0.1786
556.31	0.1814
556.66	0.1836
557.00	0.1815
557.34	0.1810
557.68	0.1813
558.02	0.1826
558.37	0.1838
558.71	0.1838
559.05	0.1868
559.39	0.1885
559.73	0.1868
560.08	0.1894
560.42	0.1879
560.76	0.1865
561.10	0.1866
561.44	0.1820
561.78	0.1849
562.13	0.1866
562.47	0.1820
562.81	0.1830
563.15	0.1867
563.49	0.1875
563.83	0.1909
564.17	0.1898
564.52	0.1890
564.86	0.1938
565.20	0.1961
565.54	0.1962
565.88	0.1966
566.22	0.1964
566.56	0.1958
566.90	0.2009
567.24	0.2010
567.59	0.2004
567.93	0.1981
568.27	0.1984
568.61	0.1991
568.95	0.2013
569.29	0.2003
569.63	0.2037
569.97	0.2030
570.31	0.2071
570.65	0.2097
570.99	0.2114
571.33	0.2155
571.67	0.2153
572.01	0.2140
572.35	0.2162
572.69	0.2160
573.03	0.2147
573.37	0.2134
573.71	0.2102
574.05	0.2101
574.39	0.2100
574.73	0.2110
575.07	0.2108
575.41	0.2126
575.75	0.2123
576.09	0.2133
576.43	0.2168
576.77	0.2184
577.11	0.2194
577.45	0.2202
577.79	0.2188
578.13	0.2213
578.47	0.2211
578.81	0.2202
579.15	0.2206
579.49	0.2222
579.83	0.2214
580.17	0.2199
580.51	0.2221
580.85	0.2236
581.19	0.2246
581.53	0.2250
581.87	0.2251
582.20	0.2284
582.54	0.2296
582.88	0.2300
583.22	0.2307
583.56	0.2305
583.90	0.2320
584.24	0.2346
584.58	0.2359
584.92	0.2368
585.25	0.2344
585.59	0.2337
585.93	0.2347
586.27	0.2346
586.61	0.2302
586.95	0.2293
587.29	0.2334
587.62	0.2370
587.96	0.2386
588.30	0.2421
588.64	0.2438
588.98	0.2461
589.31	0.2496
589.65	0.2483
589.99	0.2488
590.33	0.2509
590.67	0.2483
591.01	0.2489
591.34	0.2509
591.68	0.2496
592.02	0.2518
592.36	0.2515
592.69	0.2507
593.03	0.2528
593.37	0.2539
593.71	0.2530
594.04	0.2539
594.38	0.2547
594.72	0.2566
595.06	0.2586
595.39	0.2573
595.73	0.2563
596.07	0.2586
596.41	0.2578
596.74	0.2570
597.08	0.2588
597.42	0.2586
597.76	0.2604
598.09	0.2582
598.43	0.2588
598.77	0.2593
599.10	0.2585
599.44	0.2543
599.78	0.2545
600.11	0.2559
600.45	0.2616
600.79	0.2633
601.12	0.2662
601.46	0.2691
601.80	0.2737
602.13	0.2742
602.47	0.2719
602.81	0.2703
603.14	0.2685
603.48	0.2683
603.82	0.2667
604.15	0.2669
604.49	0.2706
604.82	0.2750
605.16	0.2787
605.50	0.2804
605.83	0.2814
606.17	0.2824
606.50	0.2823
606.84	0.2793
607.18	0.2784
607.51	0.2756
607.85	0.2780
608.18	0.2784
608.52	0.2795
608.86	0.2822
609.19	0.2839
609.53	0.2854
609.86	0.2878
610.20	0.2862
610.53	0.2870
610.87	0.2871
611.20	0.2860
611.54	0.2856
611.87	0.2838
612.21	0.2851
612.54	0.2831
612.88	0.2830
613.21	0.2855
613.55	0.2848
613.88	0.2851
614.22	0.2864
614.55	0.2859
614.89	0.2907
615.22	0.2912
615.56	0.2913
615.89	0.2946
616.23	0.2986
616.56	0.2998
616.90	0.2980
617.23	0.2990
617.57	0.3001
617.90	0.3006
618.24	0.2993
618.57	0.2980
618.90	0.2996
619.24	0.3007
619.57	0.2985
619.91	0.3010
620.24	0.3033
620.58	0.3052
620.91	0.3067
621.24	0.3085
621.58	0.3098
621.91	0.3109
622.25	0.3117
622.58	0.3094
622.91	0.3113
623.25	0.3118
623.58	0.3123
623.91	0.3140
624.25	0.3145
624.58	0.3133
624.92	0.3118
625.25	0.3099
625.58	0.3105
625.92	0.3091
626.25	0.3090
626.58	0.3118
626.92	0.3111
627.25	0.3151
627.58	0.3169
627.91	0.3171
628.25	0.3174
628.58	0.3193
628.91	0.3167
629.25	0.3222
629.58	0.3220
629.91	0.3227
630.25	0.3218
630.58	0.3211
630.91	0.3253
631.24	0.3309
631.58	0.3278
631.91	0.3325
632.24	0.3304
632.57	0.3372
632.91	0.3403
633.24	0.3379
633.57	0.3346
633.90	0.3367
634.24	0.3370
634.57	0.3414
634.90	0.3373
635.23	0.3374
635.56	0.3396
635.90	0.3443
636.23	0.3476
636.56	0.3479
636.89	0.3486
637.22	0.3520
637.56	0.3512
637.89	0.3500
638.22	0.3489
638.55	0.3477
638.88	0.3463
639.21	0.3482
639.55	0.3474
639.88	0.3525
640.21	0.3557
640.54	0.3576
640.87	0.3554
641.20	0.3577
641.53	0.3573
641.87	0.3597
642.20	0.3574
642.53	0.3549
642.86	0.3566
643.19	0.3584
643.52	0.3565
643.85	0.3550
644.18	0.3586
644.51	0.3613
644.84	0.3634
645.18	0.3644
645.51	0.3668
645.84	0.3691
646.17	0.3722
646.50	0.3712
646.83	0.3716
647.16	0.3731
647.49	0.3721
647.82	0.3729
648.15	0.3719
648.48	0.3725
648.81	0.3681
649.14	0.3674
649.47	0.3679
649.80	0.3668
650.13	0.3666
650.46	0.3697
650.79	0.3690
651.12	0.3720
651.45	0.3705
651.78	0.3680
652.11	0.3689
652.44	0.3684
652.77	0.3691
653.10	0.3711
653.43	0.3707
653.76	0.3757
654.09	0.3812
654.42	0.3877
654.75	0.3918
655.08	0.3935
655.41	0.3916
655.74	0.3930
656.07	0.3920
656.39	0.3902
656.72	0.3845
657.05	0.3827
657.38	0.3809
657.71	0.3871
658.04	0.3888
658.37	0.3895
658.70	0.3907
659.03	0.3913
659.36	0.3911
659.68	0.3932
660.01	0.3916
660.34	0.3903
660.67	0.3931
661.00	0.3951
661.33	0.3989
661.66	0.4002
661.98	0.4030
662.31	0.4017
662.64	0.4059
662.97	0.4089
663.30	0.4095
663.63	0.4141
663.95	0.4170
664.28	0.4159
664.61	0.4174
664.94	0.4147
665.27	0.4101
665.59	0.4121
665.92	0.4077
666.25	0.4054
666.58	0.4058
666.91	0.4062
667.23	0.4100
667.56	0.4140
667.89	0.4108
668.22	0.4141
668.54	0.4193
668.87	0.4215
669.20	0.4268
669.53	0.4271
669.85	0.4289
670.18	0.4306
670.51	0.4295
670.83	0.4261
671.16	0.4287
671.49	0.4275
671.82	0.4278
672.14	0.4244
672.47	0.4282
672.80	0.4273
673.12	0.4321
673.45	0.4291
673.78	0.4315
674.10	0.4330
674.43	0.4343
674.76	0.4307
675.08	0.4313
675.41	0.4274
675.74	0.4304
676.06	0.4278
676.39	0.4300
676.72	0.4318
677.04	0.4341
677.37	0.4377
677.69	0.4399
678.02	0.4372
678.35	0.4420
678.67	0.4356
679.00	0.4402
679.32	0.4393
679.65	0.4382
679.98	0.4398
680.30	0.4425
680.63	0.4421
680.95	0.4517
681.28	0.4483
681.60	0.4505
681.93	0.4491
682.26	0.4494
682.58	0.4514
682.91	0.4535
683.23	0.4527
683.56	0.4534
683.88	0.4505
684.21	0.4568
684.53	0.4585
684.86	0.4583
685.18	0.4528
685.51	0.4489
685.83	0.4478
686.16	0.4508
686.48	0.4482
686.81	0.4503
687.13	0.4456
687.46	0.4490
687.78	0.4492
688.11	0.4499
688.43	0.4534
688.76	0.4575
689.08	0.4561
689.41	0.4617
689.73	0.4616
690.05	0.4619
690.38	0.4652
690.70	0.4667
691.03	0.4663
691.35	0.4649
691.68	0.4658
692.00	0.4663
692.32	0.4709
692.65	0.4724
692.97	0.4729
693.29	0.4701
693.62	0.4744
693.94	0.4745
694.27	0.4766
694.59	0.4757
694.91	0.4773
695.24	0.4751
695.56	0.4784
695.88	0.4790
696.21	0.4814
696.53	0.4830
696.85	0.4827
697.18	0.4771
697.50	0.4781
697.82	0.4772
698.15	0.4784
698.47	0.4783
698.79	0.4733
699.12	0.4760
699.44	0.4798
699.76	0.4836
700.09	0.4883
700.41	0.4895
700.73	0.4897
701.05	0.4913
701.38	0.4941
701.70	0.4977
702.02	0.4961
702.34	0.4975
702.67	0.4946
702.99	0.4969
703.31	0.4960
703.63	0.4975
703.96	0.4973
704.28	0.4993
704.60	0.4987
704.92	0.5037
705.25	0.5028
705.57	0.5078
705.89	0.5088
706.21	0.5078
706.53	0.5056
706.86	0.5074
707.18	0.5022
707.50	0.4992
707.82	0.4975
708.14	0.4933
708.46	0.4940
708.79	0.4959
709.11	0.4906
709.43	0.4949
709.75	0.4973
710.07	0.4965
710.39	0.4972
710.71	0.4945
711.04	0.4977
711.36	0.4970
711.68	0.4984
712.00	0.5018
712.32	0.5074
712.64	0.5111
712.96	0.5183
713.28	0.5168
713.60	0.5191
713.92	0.5220
714.24	0.5236
714.57	0.5216
714.89	0.5232
715.21	0.5226
715.53	0.5192
715.85	0.5199
716.17	0.5137
716.49	0.5115
716.81	0.5084
717.13	0.5093
717.45	0.5103
717.77	0.5141
718.09	0.5134
718.41	0.5203
718.73	0.5257
719.05	0.5300
719.37	0.5283
719.69	0.5233
720.01	0.5246
720.33	0.5277
720.65	0.5269
720.97	0.5218
721.29	0.5235
721.61	0.5212
721.93	0.5218
722.25	0.5193
722.57	0.5173
722.89	0.5116
723.21	0.5231
723.52	0.5218
723.84	0.5233
724.16	0.5269
724.48	0.5354
724.80	0.5364
725.12	0.5435
725.44	0.5341
725.76	0.5373
726.08	0.5408
726.40	0.5476
726.72	0.5398
727.03	0.5473
727.35	0.5476
727.67	0.5525
727.99	0.5481
728.31	0.5470
728.63	0.5450
728.95	0.5507
729.26	0.5463
729.58	0.5452
729.90	0.5433
730.22	0.5525
730.54	0.5555
730.86	0.5536
731.17	0.5542
731.49	0.5574
731.81	0.5579
732.13	0.5565
732.45	0.5550
732.76	0.5524
733.08	0.5540
733.40	0.5509
733.72	0.5581
734.03	0.5638
734.35	0.5664
734.67	0.5605
734.99	0.5615
735.30	0.5618
735.62	0.5725
735.94	0.5653
736.26	0.5615
736.57	0.5595
736.89	0.5653
737.21	0.5616
737.53	0.5588
737.84	0.5523
738.16	0.5490
738.48	0.5462
738.79	0.5534
739.11	0.5554
739.43	0.5609
739.74	0.5690
740.06	0.5701
740.38	0.5782
740.69	0.5877
741.01	0.5894
741.33	0.5876
741.64	0.5838
741.96	0.5823
742.28	0.5856
742.59	0.5780
742.91	0.5710
743.23	0.5681
743.54	0.5679
743.86	0.5718
744.17	0.5662
744.49	0.5686
744.81	0.5761
745.12	0.5782
745.44	0.5793
745.75	0.5850
746.07	0.5887
746.38	0.5880
746.70	0.5894
747.02	0.5967
747.33	0.5996
747.65	0.5970
747.96	0.5975
748.28	0.5962
748.59	0.6040
748.91	0.5991
749.22	0.5928
749.54	0.5926
749.85	0.6004
750.17	0.5977
750.48	0.5986
750.80	0.6001
751.11	0.5974
751.43	0.5979
751.74	0.5985
752.06	0.5909
752.37	0.5866
752.69	0.5863
753.00	0.5846
753.32	0.5881
753.63	0.5834
753.95	0.5821
754.26	0.5841
754.58	0.5908
754.89	0.5905
755.20	0.5913
755.52	0.5921
755.83	0.5990
756.15	0.6050
756.46	0.6072
756.78	0.6097
757.09	0.6120
757.40	0.6182
757.72	0.6183
758.03	0.6095
758.34	0.6110
758.66	0.6107
758.97	0.6084
759.29	0.6056
759.60	0.6010
759.91	0.6052
760.23	0.6127
760.54	0.6147
760.85	0.6158
761.17	0.6167
761.48	0.6159
761.79	0.6202
762.11	0.6263
762.42	0.6271
762.73	0.6289
763.05	0.6357
763.36	0.6426
763.67	0.6550
763.98	0.6550
764.30	0.6537
764.61	0.6498
764.92	0.6431
765.23	0.6334
765.55	0.6267
765.86	0.6227
766.17	0.6207
766.48	0.6209
766.80	0.6251
767.11	0.6296
767.42	0.6349
767.73	0.6396
768.05	0.6451
768.36	0.6491
768.67	0.6490
768.98	0.6520
769.29	0.6489
769.61	0.6486
769.92	0.6511
770.23	0.6446
770.54	0.6403
770.85	0.6330
771.17	0.6308
771.48	0.6307
771.79	0.6326
772.10	0.6311
772.41	0.6307
772.72	0.6286
773.03	0.6308
773.35	0.6306
773.66	0.6360
773.97	0.6362
774.28	0.6365
774.59	0.6432
774.90	0.6479
775.21	0.6530
775.52	0.6643
775.83	0.6677
776.15	0.6771
776.46	0.6779
776.77	0.6736
777.08	0.6835
777.39	0.6872
777.70	0.6750
778.01	0.6716
778.32	0.6688
778.63	0.6724
778.94	0.6756
779.25	0.6757
779.56	0.6701
779.87	0.6669
780.18	0.6600
780.49	0.6528
780.80	0.6516
781.11	0.6560
781.42	0.6453
781.73	0.6415
782.04	0.6532
782.35	0.6614
782.66	0.6617
782.97	0.6590
783.28	0.6576
783.59	0.6647
783.90	0.6678
784.21	0.6634
784.52	0.6626
784.83	0.6730
785.14	0.6695
785.45	0.6573
785.76	0.6599
786.06	0.6655
786.37	0.6806
786.68	0.6835
786.99	0.6799
787.30	0.6824
787.61	0.6953
787.92	0.6863
788.23	0.6821
788.54	0.6671
788.84	0.6585
789.15	0.6544
789.46	0.6522
789.77	0.6505
790.08	0.6550
790.39	0.6631
790.70	0.6696
791.00	0.6723
791.31	0.6665
791.62	0.6782
791.93	0.6785
792.24	0.6800
792.54	0.6819
792.85	0.6778
793.16	0.6706
793.47	0.6773
793.78	0.6736
794.08	0.6747
794.39	0.6761
794.70	0.6624
795.01	0.6686
795.31	0.6817
795.62	0.6846
795.93	0.6906
796.24	0.6983
796.54	0.6939
796.85	0.6933
797.16	0.6901
797.47	0.6959
797.77	0.6991
798.08	0.6915
798.39	0.6788
798.69	0.6838
799.00	0.6903
799.31	0.7009
799.62	0.6960
799.92	0.6961
800.23	0.6983
800.54	0.7081
800.84	0.7128
801.15	0.7229
801.46	0.7033
801.76	0.7091
802.07	0.7044
802.37	0.7084
802.68	0.6992
802.99	0.6940
803.29	0.6944
803.60	0.7066
803.91	0.7106
804.21	0.7095
804.52	0.7095
804.82	0.7185
805.13	0.7237
805.44	0.7223
805.74	0.7220
806.05	0.7130
806.35	0.7229
806.66	0.7279
806.96	0.7285
807.27	0.7317
807.57	0.7216
807.88	0.7249
808.19	0.7276
808.49	0.7216
808.80	0.7206
809.10	0.7202
809.41	0.7153
809.71	0.7226
810.02	0.7187
810.32	0.7195
810.63	0.7209
810.93	0.7150
811.24	0.7288
811.54	0.7317
811.85	0.7289
812.15	0.7220
812.45	0.7264
812.76	0.7289
813.06	0.7208
813.37	0.7101
813.67	0.7117
813.98	0.7174
814.28	0.7326
814.58	0.7256
814.89	0.7362
815.19	0.7398
815.50	0.7475
815.80	0.7478
816.11	0.7469
816.41	0.7485
816.71	0.7564
817.02	0.7556
817.32	0.7624
817.62	0.7518
817.93	0.7481
818.23	0.7446
818.53	0.7380
818.84	0.7329
819.14	0.7296
819.44	0.7269
819.75	0.7349
820.05	0.7377
820.35	0.7459
820.66	0.7489
820.96	0.7482
821.26	0.7413
821.57	0.7387
821.87	0.7392
822.17	0.7378
822.48	0.7342
822.78	0.7273
823.08	0.7260
823.38	0.7306
823.69	0.7425
823.99	0.7320
824.29	0.7270
824.59	0.7243
824.90	0.7349
825.20	0.7296
825.50	0.7272
825.80	0.7246
826.10	0.7290
826.41	0.7314
826.71	0.7418
827.01	0.7302
827.31	0.7460
827.61	0.7469
827.92	0.7465
828.22	0.7578
828.52	0.7693
828.82	0.7680
829.12	0.7679
829.42	0.7536
829.73	0.7617
830.03	0.7604
830.33	0.7514
830.63	0.7386
830.93	0.7346
831.23	0.7511
831.53	0.7383
831.83	0.7370
832.14	0.7326
832.44	0.7244
832.74	0.7264
833.04	0.7240
833.34	0.7244
833.64	0.7560
833.94	0.7503
834.24	0.7687
834.54	0.7791
834.84	0.7794
835.14	0.7838
835.44	0.7721
835.74	0.7648
836.04	0.7572
836.34	0.7503
836.64	0.7557
836.95	0.7594
837.25	0.7562
837.55	0.7472
837.85	0.7423
838.15	0.7396
838.45	0.7339
838.74	0.7293
839.04	0.7403
839.34	0.7441
839.64	0.7593
839.94	0.7604
840.24	0.7910
840.54	0.7933
840.84	0.7930
841.14	0.7826
841.44	0.7844
841.74	0.7754
842.04	0.7768
842.34	0.7599
842.64	0.7644
842.94	0.7628
843.24	0.7535
843.53	0.7615
843.83	0.7616
844.13	0.7683
844.43	0.7748
844.73	0.7877
845.03	0.7768
845.33	0.7945
845.63	0.7864
845.92	0.7942
846.22	0.7876
846.52	0.7912
846.82	0.7780
847.12	0.7866
847.42	0.7769
847.71	0.7704
848.01	0.7648
848.31	0.7637
848.61	0.7651
848.91	0.7725
849.20	0.7812
849.50	0.7799
849.80	0.7792
850.10	0.7950
850.39	0.7961
850.69	0.7915
850.99	0.7759
851.29	0.7655
851.59	0.7835
851.88	0.8044
852.18	0.7845
852.48	0.7945
852.77	0.7868
853.07	0.8051
853.37	0.8193
853.67	0.8052
853.96	0.7977
854.26	0.8036
854.56	0.7931
854.85	0.7902
855.15	0.7833
855.45	0.7899
855.74	0.7912
856.04	0.7868
856.34	0.7911
856.63	0.7897
856.93	0.7953
857.23	0.7895
857.52	0.7700
857.82	0.7771
858.11	0.7768
858.41	0.7643
858.71	0.7761
859.00	0.7908
859.30	0.8020
859.59	0.7858
859.89	0.7779
860.19	0.7834
860.48	0.7986
860.78	0.7935
861.07	0.7905
861.37	0.7841
861.66	0.8060
861.96	0.8074
862.26	0.7941
862.55	0.7901
862.85	0.7968
863.14	0.7971
863.44	0.7949
863.73	0.7944
864.03	0.8085
864.32	0.8142
864.62	0.8318
864.91	0.8273
865.21	0.8136
865.50	0.8290
865.80	0.8528
866.09	0.8450
866.39	0.8504
866.68	0.8441
866.97	0.8410
867.27	0.8363
867.56	0.8056
867.86	0.7950
868.15	0.7937
868.45	0.8012
868.74	0.7885
869.03	0.7978
869.33	0.8018
869.62	0.8275
869.92	0.8268
870.21	0.8210
870.50	0.8029
870.80	0.8072
871.09	0.8010
871.39	0.8089
871.68	0.8062
871.97	0.8081
872.27	0.7959
872.56	0.8126
872.85	0.8072
873.15	0.8004
873.44	0.7915
873.73	0.7914
874.03	0.7876
874.32	0.7858
874.61	0.7754
874.90	0.7780
875.20	0.6913
875.49	0.7858
875.78	0.7637
>>>>>End Spectral Data<<<<<
